##TITLE=No Description
##DATA TYPE=INFRARED SPECTRUM
##XUNITS=1/CM
##YUNITS=%T
349.115696  	39.452087 
351.044512  	41.267788 
352.973328  	99.170682 
354.902144  	28.931844 
356.830960  	38.364121 
358.759776  	14.287155 
360.688592  	18.938646 
362.617408  	29.152870 
364.546224  	35.172824 
366.475040  	32.929952 
368.403856  	106.788723 
370.332672  	233.128692 
372.261488  	138.504353 
374.190304  	98.475083 
376.119120  	45.775904 
378.047936  	62.845700 
379.976752  	196.155974 
381.905568  	363.133634 
383.834384  	222.960356 
385.763200  	145.399516 
387.692016  	182.401982 
389.620832  	130.390265 
391.549648  	117.522937 
393.478464  	122.090185 
395.407280  	84.387779 
397.336096  	74.687389 
399.264912  	79.955968 
401.193728  	130.251843 
403.122544  	142.012918 
405.051360  	126.549873 
406.980176  	111.843285 
408.908992  	114.833628 
410.837808  	118.409618 
412.766624  	113.581687 
414.695440  	107.707677 
416.624256  	114.169326 
418.553072  	130.658358 
420.481888  	115.783079 
422.410704  	106.752238 
424.339520  	100.722223 
426.268336  	101.959025 
428.197152  	104.223858 
430.125968  	106.925123 
432.054784  	111.098770 
433.983600  	111.298731 
435.912416  	108.947413 
437.841232  	106.414260 
439.770048  	105.805185 
441.698864  	104.608103 
443.627680  	104.442264 
445.556496  	103.890404 
447.485312  	102.280822 
449.414128  	101.248704 
451.342944  	101.165687 
453.271760  	102.469651 
455.200576  	103.701935 
457.129392  	104.515676 
459.058208  	103.779645 
460.987024  	104.297252 
462.915840  	104.879004 
464.844656  	105.057980 
466.773472  	105.174096 
468.702288  	104.062947 
470.631104  	103.691455 
472.559920  	103.251324 
474.488736  	103.817718 
476.417552  	103.711116 
478.346368  	103.318841 
480.275184  	102.730248 
482.204000  	102.819402 
484.132816  	104.053279 
486.061632  	104.293228 
487.990448  	104.250188 
489.919264  	104.252215 
491.848080  	103.567672 
493.776896  	103.630303 
495.705712  	104.237861 
497.634528  	104.290648 
499.563344  	104.223648 
501.492160  	104.178920 
503.420976  	104.007075 
505.349792  	103.829353 
507.278608  	103.697205 
509.207424  	103.853630 
511.136240  	103.481113 
513.065056  	103.310805 
514.993872  	103.384799 
516.922688  	103.672913 
518.851504  	103.736710 
520.780320  	103.564530 
522.709136  	103.854425 
524.637952  	103.893398 
526.566768  	103.551925 
528.495584  	103.430708 
530.424400  	103.111088 
532.353216  	103.409803 
534.282032  	103.548106 
536.210848  	103.757500 
538.139664  	104.266297 
540.068480  	104.280714 
541.997296  	103.783785 
543.926112  	103.430981 
545.854928  	103.146560 
547.783744  	103.311418 
549.712560  	103.223300 
551.641376  	103.680637 
553.570192  	103.735258 
555.499008  	103.612651 
557.427824  	103.456179 
559.356640  	102.833877 
561.285456  	102.062528 
563.214272  	101.859175 
565.143088  	101.800748 
567.071904  	101.244546 
569.000720  	101.257735 
570.929536  	101.700274 
572.858352  	101.929605 
574.787168  	101.962414 
576.715984  	101.843944 
578.644800  	101.892212 
580.573616  	101.774943 
582.502432  	101.927284 
584.431248  	102.013961 
586.360064  	102.181976 
588.288880  	102.357664 
590.217696  	102.351548 
592.146512  	102.355487 
594.075328  	102.403421 
596.004144  	102.296188 
597.932960  	102.307635 
599.861776  	102.519860 
601.790592  	102.502277 
603.719408  	102.339412 
605.648224  	102.281061 
607.577040  	102.498341 
609.505856  	102.582985 
611.434672  	102.340689 
613.363488  	101.985523 
615.292304  	101.851460 
617.221120  	101.871129 
619.149936  	101.857898 
621.078752  	102.205407 
623.007568  	102.701665 
624.936384  	102.936795 
626.865200  	103.071524 
628.794016  	103.237701 
630.722832  	103.367576 
632.651648  	103.272652 
634.580464  	103.204662 
636.509280  	103.373582 
638.438096  	103.344448 
640.366912  	103.209345 
642.295728  	103.221665 
644.224544  	103.270095 
646.153360  	103.340501 
648.082176  	103.472373 
650.010992  	103.343071 
651.939808  	103.156475 
653.868624  	103.261314 
655.797440  	103.427002 
657.726256  	103.464733 
659.655072  	103.482500 
661.583888  	103.373196 
663.512704  	103.231654 
665.441520  	103.207996 
667.370336  	103.074680 
669.299152  	102.489339 
671.227968  	102.745677 
673.156784  	102.900659 
675.085600  	102.825730 
677.014416  	102.790131 
678.943232  	102.910165 
680.872048  	102.862480 
682.800864  	102.809956 
684.729680  	102.743448 
686.658496  	102.675051 
688.587312  	102.628665 
690.516128  	102.633059 
692.444944  	102.536693 
694.373760  	102.287148 
696.302576  	102.212842 
698.231392  	102.344218 
700.160208  	102.440189 
702.089024  	102.378166 
704.017840  	102.246622 
705.946656  	102.255473 
707.875472  	102.175829 
709.804288  	102.134475 
711.733104  	102.299174 
713.661920  	102.603046 
715.590736  	102.582367 
717.519552  	102.520183 
719.448368  	102.523923 
721.377184  	102.579623 
723.306000  	102.631003 
725.234816  	102.712327 
727.163632  	102.654074 
729.092448  	102.598846 
731.021264  	102.729970 
732.950080  	102.853048 
734.878896  	102.929402 
736.807712  	102.839344 
738.736528  	102.824377 
740.665344  	102.696220 
742.594160  	102.383729 
744.522976  	102.463232 
746.451792  	102.829128 
748.380608  	102.921670 
750.309424  	102.829401 
752.238240  	102.727435 
754.167056  	102.497647 
756.095872  	102.347542 
758.024688  	102.320305 
759.953504  	102.507106 
761.882320  	102.607630 
763.811136  	102.510160 
765.739952  	102.407271 
767.668768  	102.360209 
769.597584  	102.228742 
771.526400  	102.318932 
773.455216  	102.258515 
775.384032  	102.310492 
777.312848  	102.485489 
779.241664  	102.396891 
781.170480  	102.182314 
783.099296  	102.192521 
785.028112  	102.134029 
786.956928  	102.178018 
788.885744  	102.158921 
790.814560  	102.148558 
792.743376  	102.164695 
794.672192  	102.171211 
796.601008  	102.111696 
798.529824  	102.057125 
800.458640  	101.917132 
802.387456  	101.835234 
804.316272  	101.839189 
806.245088  	102.017539 
808.173904  	101.997266 
810.102720  	101.862982 
812.031536  	101.828050 
813.960352  	101.875919 
815.889168  	101.934639 
817.817984  	101.898050 
819.746800  	101.712333 
821.675616  	101.627186 
823.604432  	101.610795 
825.533248  	101.679892 
827.462064  	101.621535 
829.390880  	101.459793 
831.319696  	101.454738 
833.248512  	101.513338 
835.177328  	101.470647 
837.106144  	101.374640 
839.034960  	101.265758 
840.963776  	101.193999 
842.892592  	101.149722 
844.821408  	101.052332 
846.750224  	100.769372 
848.679040  	100.713358 
850.607856  	100.642752 
852.536672  	100.415539 
854.465488  	99.975454 
856.394304  	99.340453 
858.323120  	98.796770 
860.251936  	98.453605 
862.180752  	98.116140 
864.109568  	97.907057 
866.038384  	97.671001 
867.967200  	97.611111 
869.896016  	97.664943 
871.824832  	97.958778 
873.753648  	98.706376 
875.682464  	99.335250 
877.611280  	99.599765 
879.540096  	100.164672 
881.468912  	100.765854 
883.397728  	101.130744 
885.326544  	101.445405 
887.255360  	101.866236 
889.184176  	102.208204 
891.112992  	102.476865 
893.041808  	102.316301 
894.970624  	102.405850 
896.899440  	102.316805 
898.828256  	102.001379 
900.757072  	102.038913 
902.685888  	102.027109 
904.614704  	101.935543 
906.543520  	101.867453 
908.472336  	101.894607 
910.401152  	101.835822 
912.329968  	101.725185 
914.258784  	101.696735 
916.187600  	101.672771 
918.116416  	101.669972 
920.045232  	101.568605 
921.974048  	101.534985 
923.902864  	101.476573 
925.831680  	101.374525 
927.760496  	101.275023 
929.689312  	101.261741 
931.618128  	101.195502 
933.546944  	101.066056 
935.475760  	101.000629 
937.404576  	100.970474 
939.333392  	100.895677 
941.262208  	100.829886 
943.191024  	100.773015 
945.119840  	100.731171 
947.048656  	100.683896 
948.977472  	100.644194 
950.906288  	100.608712 
952.835104  	100.444573 
954.763920  	100.326444 
956.692736  	100.343046 
958.621552  	100.353137 
960.550368  	100.326371 
962.479184  	100.298049 
964.408000  	100.339559 
966.336816  	100.364049 
968.265632  	100.382441 
970.194448  	100.361789 
972.123264  	100.308652 
974.052080  	100.270200 
975.980896  	100.302924 
977.909712  	100.229995 
979.838528  	100.126543 
981.767344  	100.077731 
983.696160  	100.018003 
985.624976  	99.903996 
987.553792  	99.766238 
989.482608  	99.562294 
991.411424  	99.355696 
993.340240  	99.176898 
995.269056  	99.024529 
997.197872  	98.853305 
999.126688  	98.681587 
1001.055504  	98.504671 
1002.984320  	98.329392 
1004.913136  	98.107101 
1006.841952  	97.878104 
1008.770768  	97.666881 
1010.699584  	97.475289 
1012.628400  	97.278670 
1014.557216  	97.151384 
1016.486032  	96.983007 
1018.414848  	96.810616 
1020.343664  	96.697636 
1022.272480  	96.598245 
1024.201296  	96.470606 
1026.130112  	96.390339 
1028.058928  	96.310224 
1029.987744  	96.248072 
1031.916560  	96.236732 
1033.845376  	96.223240 
1035.774192  	96.164724 
1037.703008  	96.144487 
1039.631824  	96.134233 
1041.560640  	96.080406 
1043.489456  	96.014322 
1045.418272  	96.009101 
1047.347088  	96.025694 
1049.275904  	96.053783 
1051.204720  	96.106966 
1053.133536  	96.123696 
1055.062352  	96.095795 
1056.991168  	96.142128 
1058.919984  	96.239762 
1060.848800  	96.393680 
1062.777616  	96.510431 
1064.706432  	96.536218 
1066.635248  	96.557434 
1068.564064  	96.629121 
1070.492880  	96.721205 
1072.421696  	96.849698 
1074.350512  	96.981059 
1076.279328  	97.123633 
1078.208144  	97.207998 
1080.136960  	97.307209 
1082.065776  	97.416377 
1083.994592  	97.525786 
1085.923408  	97.615144 
1087.852224  	97.630670 
1089.781040  	97.688218 
1091.709856  	97.820165 
1093.638672  	97.912901 
1095.567488  	97.995317 
1097.496304  	98.061255 
1099.425120  	98.137623 
1101.353936  	98.178652 
1103.282752  	98.162533 
1105.211568  	98.118217 
1107.140384  	98.104768 
1109.069200  	98.092809 
1110.998016  	98.140239 
1112.926832  	98.207483 
1114.855648  	98.261104 
1116.784464  	98.295141 
1118.713280  	98.360831 
1120.642096  	98.418512 
1122.570912  	98.525292 
1124.499728  	98.607565 
1126.428544  	98.653586 
1128.357360  	98.678873 
1130.286176  	98.733320 
1132.214992  	98.777230 
1134.143808  	98.827888 
1136.072624  	98.894833 
1138.001440  	98.942325 
1139.930256  	98.943713 
1141.859072  	99.034342 
1143.787888  	99.079609 
1145.716704  	99.108524 
1147.645520  	99.191568 
1149.574336  	99.282137 
1151.503152  	99.312643 
1153.431968  	99.383584 
1155.360784  	99.471662 
1157.289600  	99.533797 
1159.218416  	99.555163 
1161.147232  	99.607902 
1163.076048  	99.632699 
1165.004864  	99.665265 
1166.933680  	99.700937 
1168.862496  	99.746365 
1170.791312  	99.762825 
1172.720128  	99.789710 
1174.648944  	99.775186 
1176.577760  	99.746348 
1178.506576  	99.774761 
1180.435392  	99.784789 
1182.364208  	99.739099 
1184.293024  	99.741386 
1186.221840  	99.709049 
1188.150656  	99.674620 
1190.079472  	99.647041 
1192.008288  	99.639807 
1193.937104  	99.618992 
1195.865920  	99.594834 
1197.794736  	99.553763 
1199.723552  	99.522528 
1201.652368  	99.463943 
1203.581184  	99.437941 
1205.510000  	99.413520 
1207.438816  	99.383068 
1209.367632  	99.322073 
1211.296448  	99.256329 
1213.225264  	99.196484 
1215.154080  	99.203342 
1217.082896  	99.224665 
1219.011712  	99.237970 
1220.940528  	99.242402 
1222.869344  	99.253717 
1224.798160  	99.233555 
1226.726976  	99.215321 
1228.655792  	99.171072 
1230.584608  	99.121921 
1232.513424  	99.063838 
1234.442240  	99.033024 
1236.371056  	99.017909 
1238.299872  	98.994879 
1240.228688  	98.939208 
1242.157504  	98.906081 
1244.086320  	98.833093 
1246.015136  	98.762440 
1247.943952  	98.728720 
1249.872768  	98.697426 
1251.801584  	98.654391 
1253.730400  	98.595128 
1255.659216  	98.527825 
1257.588032  	98.464145 
1259.516848  	98.328611 
1261.445664  	98.202057 
1263.374480  	98.121749 
1265.303296  	98.069127 
1267.232112  	98.029185 
1269.160928  	97.932371 
1271.089744  	97.773698 
1273.018560  	97.689061 
1274.947376  	97.633223 
1276.876192  	97.562447 
1278.805008  	97.491899 
1280.733824  	97.396352 
1282.662640  	97.270736 
1284.591456  	97.167282 
1286.520272  	97.100107 
1288.449088  	97.032250 
1290.377904  	96.965053 
1292.306720  	96.919376 
1294.235536  	96.864489 
1296.164352  	96.788760 
1298.093168  	96.681919 
1300.021984  	96.620046 
1301.950800  	96.565983 
1303.879616  	96.492765 
1305.808432  	96.383832 
1307.737248  	96.271935 
1309.666064  	96.148998 
1311.594880  	95.982598 
1313.523696  	95.742345 
1315.452512  	95.652505 
1317.381328  	95.500823 
1319.310144  	95.250545 
1321.238960  	95.073989 
1323.167776  	94.976417 
1325.096592  	94.838942 
1327.025408  	94.703981 
1328.954224  	94.512869 
1330.883040  	94.341441 
1332.811856  	94.214496 
1334.740672  	94.116229 
1336.669488  	93.921224 
1338.598304  	93.569246 
1340.527120  	93.066411 
1342.455936  	93.069908 
1344.384752  	92.997123 
1346.313568  	92.812427 
1348.242384  	92.581304 
1350.171200  	92.324554 
1352.100016  	92.100766 
1354.028832  	91.836009 
1355.957648  	91.493084 
1357.886464  	91.309581 
1359.815280  	91.200780 
1361.744096  	90.772170 
1363.672912  	90.027597 
1365.601728  	90.045062 
1367.530544  	89.862499 
1369.459360  	89.419543 
1371.388176  	89.329804 
1373.316992  	89.036216 
1375.245808  	88.346644 
1377.174624  	88.429067 
1379.103440  	88.403267 
1381.032256  	88.396919 
1382.961072  	88.407259 
1384.889888  	88.615914 
1386.818704  	88.358804 
1388.747520  	88.071131 
1390.676336  	88.301853 
1392.605152  	88.574910 
1394.533968  	88.249122 
1396.462784  	88.058946 
1398.391600  	88.125581 
1400.320416  	88.034904 
1402.249232  	88.469604 
1404.178048  	88.487855 
1406.106864  	88.337280 
1408.035680  	88.579206 
1409.964496  	88.694808 
1411.893312  	88.736073 
1413.822128  	88.962437 
1415.750944  	89.263232 
1417.679760  	89.310093 
1419.608576  	88.672062 
1421.537392  	89.106828 
1423.466208  	89.379867 
1425.395024  	89.359288 
1427.323840  	89.790945 
1429.252656  	89.785409 
1431.181472  	89.753136 
1433.110288  	90.102083 
1435.039104  	90.449633 
1436.967920  	89.801203 
1438.896736  	89.990663 
1440.825552  	90.346972 
1442.754368  	90.432154 
1444.683184  	90.581363 
1446.612000  	90.646942 
1448.540816  	90.371298 
1450.469632  	90.516737 
1452.398448  	90.620669 
1454.327264  	91.015632 
1456.256080  	90.844540 
1458.184896  	89.585487 
1460.113712  	90.175203 
1462.042528  	90.982643 
1463.971344  	91.170653 
1465.900160  	90.989621 
1467.828976  	91.464877 
1469.757792  	92.106612 
1471.686608  	92.183416 
1473.615424  	91.760584 
1475.544240  	92.138352 
1477.473056  	92.514786 
1479.401872  	93.049389 
1481.330688  	93.274916 
1483.259504  	93.625476 
1485.188320  	94.104502 
1487.117136  	94.328162 
1489.045952  	94.252650 
1490.974768  	94.183020 
1492.903584  	94.883387 
1494.832400  	95.387197 
1496.761216  	95.263792 
1498.690032  	95.300567 
1500.618848  	95.634552 
1502.547664  	96.152340 
1504.476480  	96.813398 
1506.405296  	96.390176 
1508.334112  	95.590884 
1510.262928  	96.439773 
1512.191744  	96.927899 
1514.120560  	97.410958 
1516.049376  	97.535985 
1517.978192  	97.590413 
1519.907008  	98.138193 
1521.835824  	97.638697 
1523.764640  	98.030287 
1525.693456  	98.353399 
1527.622272  	98.467955 
1529.551088  	98.853221 
1531.479904  	99.302611 
1533.408720  	99.016335 
1535.337536  	99.249868 
1537.266352  	99.963427 
1539.195168  	99.909753 
1541.123984  	99.116953 
1543.052800  	99.524519 
1544.981616  	99.679724 
1546.910432  	100.183763 
1548.839248  	100.432434 
1550.768064  	100.310549 
1552.696880  	100.611304 
1554.625696  	100.660855 
1556.554512  	101.067833 
1558.483328  	100.584738 
1560.412144  	99.723102 
1562.340960  	100.545647 
1564.269776  	100.730692 
1566.198592  	100.820304 
1568.127408  	100.999894 
1570.056224  	100.517621 
1571.985040  	100.719453 
1573.913856  	101.092138 
1575.842672  	100.700590 
1577.771488  	100.370133 
1579.700304  	100.775148 
1581.629120  	100.905151 
1583.557936  	100.931425 
1585.486752  	100.913847 
1587.415568  	100.946817 
1589.344384  	100.946705 
1591.273200  	100.941422 
1593.202016  	100.902581 
1595.130832  	100.848401 
1597.059648  	100.869178 
1598.988464  	100.975278 
1600.917280  	100.997761 
1602.846096  	100.971849 
1604.774912  	100.982129 
1606.703728  	101.014447 
1608.632544  	100.939923 
1610.561360  	100.949551 
1612.490176  	101.089047 
1614.418992  	101.331040 
1616.347808  	100.943534 
1618.276624  	100.679563 
1620.205440  	101.147311 
1622.134256  	101.223419 
1624.063072  	100.840309 
1625.991888  	101.056497 
1627.920704  	101.041348 
1629.849520  	101.077911 
1631.778336  	101.360158 
1633.707152  	101.609591 
1635.635968  	101.069666 
1637.564784  	100.712636 
1639.493600  	100.995486 
1641.422416  	101.131119 
1643.351232  	101.336560 
1645.280048  	101.408590 
1647.208864  	100.657191 
1649.137680  	100.951998 
1651.066496  	101.680972 
1652.995312  	100.849384 
1654.924128  	100.261341 
1656.852944  	100.881273 
1658.781760  	101.133383 
1660.710576  	101.222678 
1662.639392  	100.963937 
1664.568208  	100.992827 
1666.497024  	101.376154 
1668.425840  	101.330648 
1670.354656  	100.782286 
1672.283472  	100.948270 
1674.212288  	101.101925 
1676.141104  	100.766023 
1678.069920  	101.056095 
1679.998736  	101.122005 
1681.927552  	101.383979 
1683.856368  	100.934155 
1685.785184  	100.572611 
1687.714000  	100.954690 
1689.642816  	100.899444 
1691.571632  	101.064589 
1693.500448  	101.425168 
1695.429264  	101.184409 
1697.358080  	100.965323 
1699.286896  	101.130253 
1701.215712  	100.522214 
1703.144528  	101.067298 
1705.073344  	101.069572 
1707.002160  	100.902819 
1708.930976  	101.087601 
1710.859792  	101.186632 
1712.788608  	101.323958 
1714.717424  	101.277773 
1716.646240  	100.942987 
1718.575056  	100.470194 
1720.503872  	100.891178 
1722.432688  	101.096845 
1724.361504  	101.012357 
1726.290320  	101.063154 
1728.219136  	101.150056 
1730.147952  	101.090678 
1732.076768  	101.270158 
1734.005584  	100.885763 
1735.934400  	100.653271 
1737.863216  	101.001766 
1739.792032  	100.725075 
1741.720848  	100.737572 
1743.649664  	100.707023 
1745.578480  	100.828334 
1747.507296  	100.848674 
1749.436112  	100.549622 
1751.364928  	100.296857 
1753.293744  	100.591177 
1755.222560  	100.813875 
1757.151376  	100.498884 
1759.080192  	100.586715 
1761.009008  	100.573391 
1762.937824  	100.392174 
1764.866640  	100.649464 
1766.795456  	100.719341 
1768.724272  	100.655468 
1770.653088  	100.713135 
1772.581904  	100.248537 
1774.510720  	100.302872 
1776.439536  	100.483098 
1778.368352  	100.618135 
1780.297168  	100.460997 
1782.225984  	100.411385 
1784.154800  	100.432239 
1786.083616  	100.357499 
1788.012432  	100.532931 
1789.941248  	100.659895 
1791.870064  	100.313327 
1793.798880  	100.145371 
1795.727696  	100.338753 
1797.656512  	100.440191 
1799.585328  	100.428273 
1801.514144  	100.206312 
1803.442960  	100.275197 
1805.371776  	100.367953 
1807.300592  	100.395221 
1809.229408  	100.453448 
1811.158224  	100.379741 
1813.087040  	100.325175 
1815.015856  	100.466833 
1816.944672  	100.409673 
1818.873488  	100.404114 
1820.802304  	100.389761 
1822.731120  	100.429354 
1824.659936  	100.288801 
1826.588752  	100.342594 
1828.517568  	100.458199 
1830.446384  	100.121699 
1832.375200  	100.199605 
1834.304016  	100.315340 
1836.232832  	100.210833 
1838.161648  	100.123939 
1840.090464  	100.260480 
1842.019280  	100.545758 
1843.948096  	100.336572 
1845.876912  	100.072670 
1847.805728  	100.170584 
1849.734544  	100.278184 
1851.663360  	100.361227 
1853.592176  	100.299877 
1855.520992  	100.245841 
1857.449808  	100.186076 
1859.378624  	100.123117 
1861.307440  	100.197287 
1863.236256  	100.267637 
1865.165072  	100.296239 
1867.093888  	100.193414 
1869.022704  	99.869689 
1870.951520  	99.852983 
1872.880336  	100.018441 
1874.809152  	100.091495 
1876.737968  	100.156043 
1878.666784  	100.170128 
1880.595600  	100.206019 
1882.524416  	100.167288 
1884.453232  	100.036395 
1886.382048  	99.997284 
1888.310864  	99.996491 
1890.239680  	99.863429 
1892.168496  	100.008220 
1894.097312  	100.072060 
1896.026128  	99.932162 
1897.954944  	99.870585 
1899.883760  	99.936099 
1901.812576  	99.929093 
1903.741392  	99.935700 
1905.670208  	99.849358 
1907.599024  	99.851465 
1909.527840  	99.773111 
1911.456656  	99.728045 
1913.385472  	99.861072 
1915.314288  	99.964926 
1917.243104  	99.800056 
1919.171920  	99.798408 
1921.100736  	99.936158 
1923.029552  	99.631400 
1924.958368  	99.585500 
1926.887184  	99.709126 
1928.816000  	99.689667 
1930.744816  	99.717830 
1932.673632  	99.576114 
1934.602448  	99.652107 
1936.531264  	99.853837 
1938.460080  	99.669457 
1940.388896  	99.660359 
1942.317712  	99.780192 
1944.246528  	99.515836 
1946.175344  	99.462557 
1948.104160  	99.496728 
1950.032976  	99.506714 
1951.961792  	99.389269 
1953.890608  	99.524689 
1955.819424  	99.701788 
1957.748240  	99.618623 
1959.677056  	99.575451 
1961.605872  	99.602481 
1963.534688  	99.502956 
1965.463504  	99.350589 
1967.392320  	98.990251 
1969.321136  	99.043532 
1971.249952  	99.157991 
1973.178768  	99.436731 
1975.107584  	99.851492 
1977.036400  	99.924578 
1978.965216  	99.713510 
1980.894032  	99.651205 
1982.822848  	99.412161 
1984.751664  	99.355878 
1986.680480  	99.554541 
1988.609296  	99.484436 
1990.538112  	99.157040 
1992.466928  	99.074520 
1994.395744  	99.286092 
1996.324560  	99.484693 
1998.253376  	99.640719 
2000.182192  	99.569594 
2002.111008  	99.224303 
2004.039824  	99.402812 
2005.968640  	99.772608 
2007.897456  	99.723915 
2009.826272  	99.754241 
2011.755088  	99.843230 
2013.683904  	99.613061 
2015.612720  	99.383880 
2017.541536  	99.122710 
2019.470352  	98.828001 
2021.399168  	98.899487 
2023.327984  	98.823424 
2025.256800  	98.725949 
2027.185616  	98.929499 
2029.114432  	99.055701 
2031.043248  	99.200138 
2032.972064  	98.965713 
2034.900880  	99.187846 
2036.829696  	99.613903 
2038.758512  	99.603476 
2040.687328  	99.281573 
2042.616144  	99.307506 
2044.544960  	99.285257 
2046.473776  	99.163703 
2048.402592  	99.363836 
2050.331408  	99.475654 
2052.260224  	99.305545 
2054.189040  	99.336298 
2056.117856  	99.315095 
2058.046672  	99.155390 
2059.975488  	99.165637 
2061.904304  	99.026947 
2063.833120  	98.897350 
2065.761936  	99.045229 
2067.690752  	99.118363 
2069.619568  	99.172890 
2071.548384  	99.306058 
2073.477200  	99.212940 
2075.406016  	99.133286 
2077.334832  	99.067857 
2079.263648  	98.929421 
2081.192464  	98.919387 
2083.121280  	99.026444 
2085.050096  	99.134984 
2086.978912  	99.211597 
2088.907728  	99.115955 
2090.836544  	98.856822 
2092.765360  	98.731810 
2094.694176  	98.827238 
2096.622992  	98.915024 
2098.551808  	98.975767 
2100.480624  	99.022445 
2102.409440  	98.972820 
2104.338256  	99.007363 
2106.267072  	98.952717 
2108.195888  	98.930629 
2110.124704  	99.031787 
2112.053520  	98.988866 
2113.982336  	98.896279 
2115.911152  	98.934915 
2117.839968  	98.920406 
2119.768784  	98.915558 
2121.697600  	98.887862 
2123.626416  	98.902162 
2125.555232  	98.861770 
2127.484048  	98.824367 
2129.412864  	98.837686 
2131.341680  	98.778120 
2133.270496  	98.578836 
2135.199312  	98.635515 
2137.128128  	98.846723 
2139.056944  	98.827355 
2140.985760  	98.818266 
2142.914576  	98.750530 
2144.843392  	98.811288 
2146.772208  	98.971427 
2148.701024  	98.890934 
2150.629840  	98.695041 
2152.558656  	98.462058 
2154.487472  	98.589622 
2156.416288  	98.620909 
2158.345104  	98.432663 
2160.273920  	98.588618 
2162.202736  	98.853777 
2164.131552  	98.980029 
2166.060368  	99.288488 
2167.989184  	99.164387 
2169.918000  	98.736251 
2171.846816  	98.661032 
2173.775632  	98.647089 
2175.704448  	98.685672 
2177.633264  	98.725107 
2179.562080  	98.457110 
2181.490896  	98.220436 
2183.419712  	98.236990 
2185.348528  	98.393976 
2187.277344  	98.582591 
2189.206160  	98.781788 
2191.134976  	98.648065 
2193.063792  	98.315775 
2194.992608  	98.461646 
2196.921424  	98.627522 
2198.850240  	98.494788 
2200.779056  	98.423909 
2202.707872  	98.528515 
2204.636688  	98.587098 
2206.565504  	98.569159 
2208.494320  	98.373318 
2210.423136  	98.445956 
2212.351952  	98.678587 
2214.280768  	98.473763 
2216.209584  	98.238260 
2218.138400  	98.310214 
2220.067216  	98.391872 
2221.996032  	98.377958 
2223.924848  	98.318626 
2225.853664  	98.250483 
2227.782480  	98.231141 
2229.711296  	98.312543 
2231.640112  	98.439001 
2233.568928  	98.436483 
2235.497744  	98.396575 
2237.426560  	98.318153 
2239.355376  	98.301981 
2241.284192  	98.338780 
2243.213008  	98.416766 
2245.141824  	98.458331 
2247.070640  	98.345590 
2248.999456  	98.271528 
2250.928272  	98.447238 
2252.857088  	98.436189 
2254.785904  	98.327482 
2256.714720  	98.318291 
2258.643536  	98.280383 
2260.572352  	98.233095 
2262.501168  	98.253859 
2264.429984  	98.244784 
2266.358800  	98.322042 
2268.287616  	98.318361 
2270.216432  	98.238293 
2272.145248  	98.251910 
2274.074064  	98.217750 
2276.002880  	98.075804 
2277.931696  	98.045568 
2279.860512  	98.140884 
2281.789328  	98.274985 
2283.718144  	98.267810 
2285.646960  	98.225514 
2287.575776  	98.210479 
2289.504592  	98.119114 
2291.433408  	98.082274 
2293.362224  	98.111308 
2295.291040  	98.103552 
2297.219856  	98.105629 
2299.148672  	98.156156 
2301.077488  	98.205008 
2303.006304  	98.158606 
2304.935120  	98.170832 
2306.863936  	98.173086 
2308.792752  	98.129847 
2310.721568  	98.051947 
2312.650384  	97.996793 
2314.579200  	98.018363 
2316.508016  	98.088247 
2318.436832  	98.070587 
2320.365648  	98.046714 
2322.294464  	98.082487 
2324.223280  	98.155611 
2326.152096  	98.162226 
2328.080912  	98.118530 
2330.009728  	98.101080 
2331.938544  	98.145467 
2333.867360  	98.112035 
2335.796176  	98.080583 
2337.724992  	98.102334 
2339.653808  	98.123807 
2341.582624  	98.081995 
2343.511440  	97.996210 
2345.440256  	97.790538 
2347.369072  	97.875925 
2349.297888  	98.155707 
2351.226704  	98.302478 
2353.155520  	98.324274 
2355.084336  	98.189468 
2357.013152  	98.186061 
2358.941968  	98.300258 
2360.870784  	98.235061 
2362.799600  	98.076932 
2364.728416  	97.905457 
2366.657232  	97.876860 
2368.586048  	97.936801 
2370.514864  	97.990971 
2372.443680  	97.936043 
2374.372496  	97.882924 
2376.301312  	97.878759 
2378.230128  	97.911111 
2380.158944  	97.966328 
2382.087760  	97.995573 
2384.016576  	97.974546 
2385.945392  	98.029849 
2387.874208  	98.083277 
2389.803024  	98.084011 
2391.731840  	98.085132 
2393.660656  	98.044848 
2395.589472  	98.041892 
2397.518288  	98.075320 
2399.447104  	98.044727 
2401.375920  	98.023320 
2403.304736  	98.023386 
2405.233552  	98.032754 
2407.162368  	97.992323 
2409.091184  	97.947180 
2411.020000  	97.975041 
2412.948816  	97.988960 
2414.877632  	98.010781 
2416.806448  	97.999326 
2418.735264  	97.934826 
2420.664080  	97.898367 
2422.592896  	97.892524 
2424.521712  	97.940873 
2426.450528  	97.983521 
2428.379344  	97.950345 
2430.308160  	97.924246 
2432.236976  	97.931215 
2434.165792  	97.917693 
2436.094608  	97.921475 
2438.023424  	97.906894 
2439.952240  	97.908373 
2441.881056  	97.911254 
2443.809872  	97.914862 
2445.738688  	97.951589 
2447.667504  	97.986941 
2449.596320  	97.958822 
2451.525136  	97.990682 
2453.453952  	97.987766 
2455.382768  	97.908197 
2457.311584  	97.896828 
2459.240400  	97.892956 
2461.169216  	97.862094 
2463.098032  	97.866293 
2465.026848  	97.903839 
2466.955664  	97.939442 
2468.884480  	97.939171 
2470.813296  	97.929453 
2472.742112  	97.980786 
2474.670928  	97.929328 
2476.599744  	97.814544 
2478.528560  	97.826584 
2480.457376  	97.790224 
2482.386192  	97.765043 
2484.315008  	97.787619 
2486.243824  	97.797185 
2488.172640  	97.765009 
2490.101456  	97.779611 
2492.030272  	97.829811 
2493.959088  	97.875668 
2495.887904  	97.815631 
2497.816720  	97.779055 
2499.745536  	97.763488 
2501.674352  	97.706125 
2503.603168  	97.718742 
2505.531984  	97.721099 
2507.460800  	97.722595 
2509.389616  	97.768872 
2511.318432  	97.801983 
2513.247248  	97.712582 
2515.176064  	97.630773 
2517.104880  	97.691953 
2519.033696  	97.760069 
2520.962512  	97.755282 
2522.891328  	97.692539 
2524.820144  	97.627571 
2526.748960  	97.654675 
2528.677776  	97.699354 
2530.606592  	97.702442 
2532.535408  	97.687869 
2534.464224  	97.647559 
2536.393040  	97.611974 
2538.321856  	97.650468 
2540.250672  	97.745613 
2542.179488  	97.744721 
2544.108304  	97.633298 
2546.037120  	97.628953 
2547.965936  	97.704428 
2549.894752  	97.727866 
2551.823568  	97.704959 
2553.752384  	97.702316 
2555.681200  	97.680451 
2557.610016  	97.650387 
2559.538832  	97.677892 
2561.467648  	97.670953 
2563.396464  	97.577468 
2565.325280  	97.556251 
2567.254096  	97.631771 
2569.182912  	97.652045 
2571.111728  	97.602721 
2573.040544  	97.634468 
2574.969360  	97.670898 
2576.898176  	97.639279 
2578.826992  	97.613027 
2580.755808  	97.646722 
2582.684624  	97.673616 
2584.613440  	97.621809 
2586.542256  	97.616847 
2588.471072  	97.641274 
2590.399888  	97.629716 
2592.328704  	97.589695 
2594.257520  	97.561459 
2596.186336  	97.568603 
2598.115152  	97.559970 
2600.043968  	97.554381 
2601.972784  	97.566110 
2603.901600  	97.557079 
2605.830416  	97.610862 
2607.759232  	97.641735 
2609.688048  	97.641901 
2611.616864  	97.644437 
2613.545680  	97.588899 
2615.474496  	97.549544 
2617.403312  	97.607297 
2619.332128  	97.638430 
2621.260944  	97.624548 
2623.189760  	97.590953 
2625.118576  	97.578075 
2627.047392  	97.572568 
2628.976208  	97.567498 
2630.905024  	97.556971 
2632.833840  	97.567467 
2634.762656  	97.548202 
2636.691472  	97.510972 
2638.620288  	97.478659 
2640.549104  	97.486491 
2642.477920  	97.509023 
2644.406736  	97.496855 
2646.335552  	97.484519 
2648.264368  	97.517449 
2650.193184  	97.542460 
2652.122000  	97.512740 
2654.050816  	97.471083 
2655.979632  	97.474355 
2657.908448  	97.481845 
2659.837264  	97.494534 
2661.766080  	97.482318 
2663.694896  	97.464891 
2665.623712  	97.478169 
2667.552528  	97.472797 
2669.481344  	97.459634 
2671.410160  	97.448323 
2673.338976  	97.438015 
2675.267792  	97.399651 
2677.196608  	97.379527 
2679.125424  	97.401367 
2681.054240  	97.391869 
2682.983056  	97.347866 
2684.911872  	97.344501 
2686.840688  	97.371544 
2688.769504  	97.387310 
2690.698320  	97.367676 
2692.627136  	97.340521 
2694.555952  	97.319821 
2696.484768  	97.320229 
2698.413584  	97.311896 
2700.342400  	97.314487 
2702.271216  	97.320552 
2704.200032  	97.284525 
2706.128848  	97.258097 
2708.057664  	97.275165 
2709.986480  	97.280081 
2711.915296  	97.223100 
2713.844112  	97.184553 
2715.772928  	97.197319 
2717.701744  	97.206251 
2719.630560  	97.198769 
2721.559376  	97.200358 
2723.488192  	97.212395 
2725.417008  	97.194714 
2727.345824  	97.167243 
2729.274640  	97.106271 
2731.203456  	97.078553 
2733.132272  	97.099505 
2735.061088  	97.119224 
2736.989904  	97.137410 
2738.918720  	97.098259 
2740.847536  	97.059568 
2742.776352  	97.049406 
2744.705168  	97.072813 
2746.633984  	97.081677 
2748.562800  	97.057251 
2750.491616  	97.017727 
2752.420432  	97.020356 
2754.349248  	96.997796 
2756.278064  	96.977306 
2758.206880  	96.992668 
2760.135696  	96.973651 
2762.064512  	96.937680 
2763.993328  	96.966457 
2765.922144  	96.973676 
2767.850960  	96.955412 
2769.779776  	96.919278 
2771.708592  	96.859971 
2773.637408  	96.869250 
2775.566224  	96.870376 
2777.495040  	96.848895 
2779.423856  	96.842310 
2781.352672  	96.866686 
2783.281488  	96.877951 
2785.210304  	96.854336 
2787.139120  	96.817936 
2789.067936  	96.793140 
2790.996752  	96.761769 
2792.925568  	96.739800 
2794.854384  	96.772938 
2796.783200  	96.747603 
2798.712016  	96.737769 
2800.640832  	96.748158 
2802.569648  	96.720451 
2804.498464  	96.717456 
2806.427280  	96.693508 
2808.356096  	96.679998 
2810.284912  	96.676608 
2812.213728  	96.665030 
2814.142544  	96.696999 
2816.071360  	96.650520 
2818.000176  	96.595025 
2819.928992  	96.598047 
2821.857808  	96.607969 
2823.786624  	96.622970 
2825.715440  	96.625812 
2827.644256  	96.620031 
2829.573072  	96.597033 
2831.501888  	96.556753 
2833.430704  	96.530379 
2835.359520  	96.546051 
2837.288336  	96.551361 
2839.217152  	96.543570 
2841.145968  	96.542237 
2843.074784  	96.530725 
2845.003600  	96.551895 
2846.932416  	96.525461 
2848.861232  	96.503945 
2850.790048  	96.501887 
2852.718864  	96.478487 
2854.647680  	96.435965 
2856.576496  	96.432097 
2858.505312  	96.427613 
2860.434128  	96.399963 
2862.362944  	96.387899 
2864.291760  	96.382700 
2866.220576  	96.397192 
2868.149392  	96.393033 
2870.078208  	96.347659 
2872.007024  	96.357542 
2873.935840  	96.394535 
2875.864656  	96.367658 
2877.793472  	96.344431 
2879.722288  	96.345202 
2881.651104  	96.381433 
2883.579920  	96.419482 
2885.508736  	96.381367 
2887.437552  	96.336976 
2889.366368  	96.329843 
2891.295184  	96.341326 
2893.224000  	96.346932 
2895.152816  	96.351455 
2897.081632  	96.349597 
2899.010448  	96.369670 
2900.939264  	96.352103 
2902.868080  	96.351194 
2904.796896  	96.380948 
2906.725712  	96.409266 
2908.654528  	96.387624 
2910.583344  	96.360217 
2912.512160  	96.348635 
2914.440976  	96.315709 
2916.369792  	96.312456 
2918.298608  	96.348073 
2920.227424  	96.347714 
2922.156240  	96.350702 
2924.085056  	96.317627 
2926.013872  	96.300912 
2927.942688  	96.297716 
2929.871504  	96.298945 
2931.800320  	96.317863 
2933.729136  	96.319390 
2935.657952  	96.327193 
2937.586768  	96.284659 
2939.515584  	96.290484 
2941.444400  	96.352813 
2943.373216  	96.357922 
2945.302032  	96.309035 
2947.230848  	96.273510 
2949.159664  	96.281198 
2951.088480  	96.370366 
2953.017296  	96.387870 
2954.946112  	96.319276 
2956.874928  	96.334696 
2958.803744  	96.371932 
2960.732560  	96.358299 
2962.661376  	96.341426 
2964.590192  	96.291758 
2966.519008  	96.256970 
2968.447824  	96.276711 
2970.376640  	96.331996 
2972.305456  	96.357771 
2974.234272  	96.318549 
2976.163088  	96.325171 
2978.091904  	96.329354 
2980.020720  	96.310409 
2981.949536  	96.335566 
2983.878352  	96.380284 
2985.807168  	96.416309 
2987.735984  	96.403605 
2989.664800  	96.372542 
2991.593616  	96.382328 
2993.522432  	96.384633 
2995.451248  	96.375736 
2997.380064  	96.373210 
2999.308880  	96.404931 
3001.237696  	96.430496 
3003.166512  	96.471803 
3005.095328  	96.441103 
3007.024144  	96.413023 
3008.952960  	96.446047 
3010.881776  	96.434140 
3012.810592  	96.370818 
3014.739408  	96.357190 
3016.668224  	96.360030 
3018.597040  	96.367232 
3020.525856  	96.379471 
3022.454672  	96.414515 
3024.383488  	96.460620 
3026.312304  	96.417400 
3028.241120  	96.360373 
3030.169936  	96.323400 
3032.098752  	96.318693 
3034.027568  	96.373856 
3035.956384  	96.381459 
3037.885200  	96.354461 
3039.814016  	96.321444 
3041.742832  	96.315713 
3043.671648  	96.357344 
3045.600464  	96.422019 
3047.529280  	96.401610 
3049.458096  	96.353651 
3051.386912  	96.355056 
3053.315728  	96.387496 
3055.244544  	96.370187 
3057.173360  	96.338153 
3059.102176  	96.332385 
3061.030992  	96.327744 
3062.959808  	96.369076 
3064.888624  	96.370520 
3066.817440  	96.320143 
3068.746256  	96.303776 
3070.675072  	96.332013 
3072.603888  	96.378428 
3074.532704  	96.402285 
3076.461520  	96.400983 
3078.390336  	96.366887 
3080.319152  	96.401342 
3082.247968  	96.384800 
3084.176784  	96.374793 
3086.105600  	96.391174 
3088.034416  	96.402561 
3089.963232  	96.421120 
3091.892048  	96.418800 
3093.820864  	96.424828 
3095.749680  	96.345917 
3097.678496  	96.352435 
3099.607312  	96.397614 
3101.536128  	96.371174 
3103.464944  	96.407294 
3105.393760  	96.420059 
3107.322576  	96.390358 
3109.251392  	96.350676 
3111.180208  	96.328714 
3113.109024  	96.437363 
3115.037840  	96.502561 
3116.966656  	96.415895 
3118.895472  	96.417516 
3120.824288  	96.433399 
3122.753104  	96.373277 
3124.681920  	96.409958 
3126.610736  	96.485049 
3128.539552  	96.475644 
3130.468368  	96.471019 
3132.397184  	96.407602 
3134.326000  	96.419417 
3136.254816  	96.414987 
3138.183632  	96.339867 
3140.112448  	96.408990 
3142.041264  	96.530940 
3143.970080  	96.530722 
3145.898896  	96.475337 
3147.827712  	96.456334 
3149.756528  	96.483841 
3151.685344  	96.528594 
3153.614160  	96.551154 
3155.542976  	96.461713 
3157.471792  	96.432733 
3159.400608  	96.505790 
3161.329424  	96.535511 
3163.258240  	96.557925 
3165.187056  	96.560101 
3167.115872  	96.533988 
3169.044688  	96.530156 
3170.973504  	96.538834 
3172.902320  	96.535776 
3174.831136  	96.567272 
3176.759952  	96.585330 
3178.688768  	96.565835 
3180.617584  	96.630331 
3182.546400  	96.649379 
3184.475216  	96.615841 
3186.404032  	96.603608 
3188.332848  	96.592506 
3190.261664  	96.596544 
3192.190480  	96.653729 
3194.119296  	96.691351 
3196.048112  	96.644151 
3197.976928  	96.573741 
3199.905744  	96.656909 
3201.834560  	96.732140 
3203.763376  	96.731135 
3205.692192  	96.694213 
3207.621008  	96.752002 
3209.549824  	96.746705 
3211.478640  	96.745611 
3213.407456  	96.772859 
3215.336272  	96.738568 
3217.265088  	96.758694 
3219.193904  	96.760745 
3221.122720  	96.743808 
3223.051536  	96.773728 
3224.980352  	96.790624 
3226.909168  	96.711953 
3228.837984  	96.707403 
3230.766800  	96.849300 
3232.695616  	96.917609 
3234.624432  	96.880575 
3236.553248  	96.837088 
3238.482064  	96.856379 
3240.410880  	96.853052 
3242.339696  	96.887039 
3244.268512  	96.800117 
3246.197328  	96.690695 
3248.126144  	96.766412 
3250.054960  	96.866122 
3251.983776  	96.892808 
3253.912592  	96.905617 
3255.841408  	96.872510 
3257.770224  	96.870834 
3259.699040  	96.880458 
3261.627856  	96.883888 
3263.556672  	96.898011 
3265.485488  	96.906876 
3267.414304  	96.974609 
3269.343120  	97.012095 
3271.271936  	96.937711 
3273.200752  	96.852933 
3275.129568  	96.850625 
3277.058384  	96.910256 
3278.987200  	96.945920 
3280.916016  	96.958898 
3282.844832  	96.982024 
3284.773648  	97.001799 
3286.702464  	96.967513 
3288.631280  	96.946199 
3290.560096  	96.991274 
3292.488912  	96.922314 
3294.417728  	96.840238 
3296.346544  	96.897910 
3298.275360  	96.998609 
3300.204176  	96.988617 
3302.132992  	96.983573 
3304.061808  	97.065478 
3305.990624  	97.119139 
3307.919440  	97.129860 
3309.848256  	97.077416 
3311.777072  	97.081527 
3313.705888  	97.073097 
3315.634704  	97.029730 
3317.563520  	97.076706 
3319.492336  	97.146666 
3321.421152  	97.096177 
3323.349968  	97.080051 
3325.278784  	97.139070 
3327.207600  	97.105592 
3329.136416  	97.055456 
3331.065232  	97.061440 
3332.994048  	97.065610 
3334.922864  	97.047800 
3336.851680  	96.991325 
3338.780496  	97.028011 
3340.709312  	97.102195 
3342.638128  	97.114569 
3344.566944  	97.088077 
3346.495760  	97.071470 
3348.424576  	97.115739 
3350.353392  	97.143544 
3352.282208  	97.105379 
3354.211024  	97.100913 
3356.139840  	97.100353 
3358.068656  	97.038698 
3359.997472  	97.084698 
3361.926288  	97.085862 
3363.855104  	97.083313 
3365.783920  	97.094814 
3367.712736  	97.009188 
3369.641552  	97.044025 
3371.570368  	97.121156 
3373.499184  	97.122803 
3375.428000  	97.220205 
3377.356816  	97.204485 
3379.285632  	97.124957 
3381.214448  	97.170309 
3383.143264  	97.182355 
3385.072080  	97.149406 
3387.000896  	97.140060 
3388.929712  	97.106035 
3390.858528  	97.081037 
3392.787344  	97.056851 
3394.716160  	97.137285 
3396.644976  	97.202944 
3398.573792  	97.166627 
3400.502608  	97.117628 
3402.431424  	97.172270 
3404.360240  	97.141500 
3406.289056  	97.157586 
3408.217872  	97.152840 
3410.146688  	97.116421 
3412.075504  	97.186324 
3414.004320  	97.216691 
3415.933136  	97.270352 
3417.861952  	97.324667 
3419.790768  	97.244855 
3421.719584  	97.126698 
3423.648400  	97.202269 
3425.577216  	97.269491 
3427.506032  	97.222591 
3429.434848  	97.236014 
3431.363664  	97.273343 
3433.292480  	97.311733 
3435.221296  	97.296574 
3437.150112  	97.187369 
3439.078928  	97.199490 
3441.007744  	97.232933 
3442.936560  	97.216981 
3444.865376  	97.212990 
3446.794192  	97.103775 
3448.723008  	97.117917 
3450.651824  	97.171197 
3452.580640  	97.261157 
3454.509456  	97.307892 
3456.438272  	97.295464 
3458.367088  	97.411463 
3460.295904  	97.543495 
3462.224720  	97.492057 
3464.153536  	97.351227 
3466.082352  	97.238787 
3468.011168  	97.314991 
3469.939984  	97.323474 
3471.868800  	97.301472 
3473.797616  	97.306085 
3475.726432  	97.304159 
3477.655248  	97.342797 
3479.584064  	97.424702 
3481.512880  	97.394864 
3483.441696  	97.339964 
3485.370512  	97.399982 
3487.299328  	97.380128 
3489.228144  	97.341391 
3491.156960  	97.373058 
3493.085776  	97.406539 
3495.014592  	97.431249 
3496.943408  	97.441193 
3498.872224  	97.541711 
3500.801040  	97.503126 
3502.729856  	97.292616 
3504.658672  	97.273361 
3506.587488  	97.442474 
3508.516304  	97.417211 
3510.445120  	97.332282 
3512.373936  	97.440045 
3514.302752  	97.431487 
3516.231568  	97.427126 
3518.160384  	97.529595 
3520.089200  	97.656551 
3522.018016  	97.597715 
3523.946832  	97.393244 
3525.875648  	97.413748 
3527.804464  	97.364578 
3529.733280  	97.383787 
3531.662096  	97.385531 
3533.590912  	97.491786 
3535.519728  	97.517521 
3537.448544  	97.481788 
3539.377360  	97.592559 
3541.306176  	97.730386 
3543.234992  	97.657743 
3545.163808  	97.324136 
3547.092624  	97.267724 
3549.021440  	97.462086 
3550.950256  	97.439971 
3552.879072  	97.379852 
3554.807888  	97.469050 
3556.736704  	97.537173 
3558.665520  	97.621492 
3560.594336  	97.735307 
3562.523152  	97.907290 
3564.451968  	98.020324 
3566.380784  	97.428231 
3568.309600  	96.939687 
3570.238416  	97.367047 
3572.167232  	97.667908 
3574.096048  	97.657693 
3576.024864  	97.583782 
3577.953680  	97.579582 
3579.882496  	97.603061 
3581.811312  	97.745567 
3583.740128  	97.887432 
3585.668944  	97.772386 
3587.597760  	97.170825 
3589.526576  	97.166953 
3591.455392  	97.553812 
3593.384208  	97.558954 
3595.313024  	97.441552 
3597.241840  	97.610525 
3599.170656  	97.706294 
3601.099472  	97.496552 
3603.028288  	97.583494 
3604.957104  	97.963061 
3606.885920  	97.827115 
3608.814736  	97.383794 
3610.743552  	97.558148 
3612.672368  	97.514640 
3614.601184  	97.438435 
3616.530000  	97.752394 
3618.458816  	97.424643 
3620.387632  	97.058391 
3622.316448  	97.427199 
3624.245264  	97.850662 
3626.174080  	98.069788 
3628.102896  	97.391700 
3630.031712  	96.773293 
3631.960528  	97.372218 
3633.889344  	97.454550 
3635.818160  	97.594136 
3637.746976  	97.666305 
3639.675792  	97.700146 
3641.604608  	97.702843 
3643.533424  	97.920832 
3645.462240  	98.273537 
3647.391056  	97.987582 
3649.319872  	96.839599 
3651.248688  	96.671758 
3653.177504  	97.572417 
3655.106320  	97.711957 
3657.035136  	97.451678 
3658.963952  	97.601027 
3660.892768  	97.594035 
3662.821584  	97.627146 
3664.750400  	97.853508 
3666.679216  	98.108409 
3668.608032  	97.878489 
3670.536848  	97.340155 
3672.465664  	97.943614 
3674.394480  	97.862752 
3676.323296  	96.912415 
3678.252112  	97.259172 
3680.180928  	97.484803 
3682.109744  	97.706071 
3684.038560  	97.934904 
3685.967376  	98.167240 
3687.896192  	97.843064 
3689.825008  	97.158676 
3691.753824  	97.077583 
3693.682640  	97.506661 
3695.611456  	97.716521 
3697.540272  	97.790097 
3699.469088  	97.880248 
3701.397904  	97.599082 
3703.326720  	97.492300 
3705.255536  	97.850320 
3707.184352  	98.163142 
3709.113168  	97.974301 
3711.041984  	97.083313 
3712.970800  	96.891471 
3714.899616  	97.462033 
3716.828432  	97.853379 
3718.757248  	97.936744 
3720.686064  	97.881307 
3722.614880  	97.698799 
3724.543696  	97.660187 
3726.472512  	97.482166 
3728.401328  	97.759115 
3730.330144  	98.123122 
3732.258960  	98.088632 
3734.187776  	97.500794 
3736.116592  	96.705399 
3738.045408  	97.157658 
3739.974224  	97.747933 
3741.903040  	98.144012 
3743.831856  	97.452104 
3745.760672  	97.093589 
3747.689488  	97.858993 
3749.618304  	97.637377 
3751.547120  	96.819599 
3753.475936  	97.052422 
3755.404752  	97.621275 
3757.333568  	97.680273 
3759.262384  	97.399530 
3761.191200  	97.472596 
3763.120016  	97.864153 
3765.048832  	97.718916 
3766.977648  	97.852662 
3768.906464  	97.672872 
3770.835280  	97.253669 
3772.764096  	97.545855 
3774.692912  	97.840266 
3776.621728  	97.943604 
3778.550544  	97.672420 
3780.479360  	97.492527 
3782.408176  	97.748341 
3784.336992  	97.629718 
3786.265808  	97.528907 
3788.194624  	97.630738 
3790.123440  	97.688940 
3792.052256  	97.829702 
3793.981072  	98.027084 
3795.909888  	97.818897 
3797.838704  	97.915227 
3799.767520  	98.037977 
3801.696336  	97.189697 
3803.625152  	97.446275 
3805.553968  	97.644311 
3807.482784  	97.141083 
3809.411600  	97.475068 
3811.340416  	97.941414 
3813.269232  	98.182582 
3815.198048  	97.779788 
3817.126864  	97.656084 
3819.055680  	97.981018 
3820.984496  	97.206500 
3822.913312  	97.166971 
3824.842128  	97.571249 
3826.770944  	97.491763 
3828.699760  	97.668041 
3830.628576  	97.757860 
3832.557392  	97.720046 
3834.486208  	97.866543 
3836.415024  	97.796115 
3838.343840  	97.385183 
3840.272656  	97.138047 
3842.201472  	97.239052 
3844.130288  	97.211997 
3846.059104  	97.546157 
3847.987920  	97.978622 
3849.916736  	98.270821 
3851.845552  	98.023964 
3853.774368  	96.537488 
3855.703184  	96.673927 
3857.632000  	97.288374 
3859.560816  	97.820398 
3861.489632  	97.871420 
3863.418448  	97.437731 
3865.347264  	97.255984 
3867.276080  	97.822758 
3869.204896  	97.570966 
3871.133712  	97.281539 
3873.062528  	97.371127 
3874.991344  	97.257092 
3876.920160  	97.748889 
3878.848976  	97.851356 
3880.777792  	97.508338 
3882.706608  	97.727973 
3884.635424  	97.474813 
3886.564240  	97.251834 
3888.493056  	97.748210 
3890.421872  	97.581137 
3892.350688  	97.189175 
3894.279504  	97.455442 
3896.208320  	97.855186 
3898.137136  	97.911829 
3900.065952  	97.651588 
3901.994768  	97.436929 
3903.923584  	96.999622 
3905.852400  	97.055116 
3907.781216  	97.412870 
3909.710032  	97.624693 
3911.638848  	97.678503 
3913.567664  	97.769250 
3915.496480  	97.729940 
3917.425296  	97.572271 
3919.354112  	97.571034 
3921.282928  	97.657977 
3923.211744  	97.579889 
3925.140560  	97.389118 
3927.069376  	97.587737 
3928.998192  	97.697274 
3930.927008  	97.559560 
3932.855824  	97.323460 
3934.784640  	97.450622 
3936.713456  	97.611301 
3938.642272  	97.691131 
3940.571088  	97.733888 
3942.499904  	97.442186 
3944.428720  	97.454915 
3946.357536  	97.587828 
3948.286352  	97.469440 
3950.215168  	97.402256 
3952.143984  	97.490138 
3954.072800  	97.575665 
3956.001616  	97.573551 
3957.930432  	97.583239 
3959.859248  	97.658743 
3961.788064  	97.629450 
3963.716880  	97.583122 
3965.645696  	97.659231 
3967.574512  	97.645852 
3969.503328  	97.597556 
3971.432144  	97.606292 
3973.360960  	97.584415 
3975.289776  	97.553566 
3977.218592  	97.600041 
3979.147408  	97.656925 
3981.076224  	97.630207 
3983.005040  	97.578159 
3984.933856  	97.600854 
3986.862672  	97.668893 
3988.791488  	97.688752 
3990.720304  	97.640472 
3992.649120  	97.624631 
3994.577936  	97.605349 
3996.506752  	97.578785 
3998.435568  	97.601395 
4000.364384  	97.621562 
4002.293200  	97.616251 
4004.222016  	97.644984 
4006.150832  	97.633268 
4008.079648  	97.595279 
4010.008464  	97.602378 
4011.937280  	97.571125 
4013.866096  	97.550335 
4015.794912  	97.577106 
4017.723728  	97.601202 
4019.652544  	97.620331 
4021.581360  	97.673547 
4023.510176  	97.655626 
4025.438992  	97.594601 
4027.367808  	97.630747 
4029.296624  	97.638152 
4031.225440  	97.632924 
4033.154256  	97.631792 
4035.083072  	97.580349 
4037.011888  	97.582976 
4038.940704  	97.602564 
4040.869520  	97.638442 
4042.798336  	97.632773 
4044.727152  	97.633125 
4046.655968  	97.648755 
4048.584784  	97.666487 
4050.513600  	97.675949 
4052.442416  	97.677465 
4054.371232  	97.659408 
4056.300048  	97.683679 
4058.228864  	97.719863 
4060.157680  	97.615170 
4062.086496  	97.575017 
4064.015312  	97.638336 
4065.944128  	97.633686 
4067.872944  	97.655369 
4069.801760  	97.639518 
4071.730576  	97.634814 
4073.659392  	97.635436 
4075.588208  	97.673140 
4077.517024  	97.705451 
4079.445840  	97.667071 
4081.374656  	97.690031 
4083.303472  	97.664677 
4085.232288  	97.611139 
4087.161104  	97.555641 
4089.089920  	97.585660 
4091.018736  	97.633594 
4092.947552  	97.614959 
4094.876368  	97.654257 
4096.805184  	97.690439 
4098.734000  	97.630104 
4100.662816  	97.638966 
4102.591632  	97.701755 
4104.520448  	97.691837 
4106.449264  	97.627496 
4108.378080  	97.623627 
4110.306896  	97.659075 
4112.235712  	97.669866 
4114.164528  	97.686184 
4116.093344  	97.720581 
4118.022160  	97.783018 
4119.950976  	97.762879 
4121.879792  	97.707694 
4123.808608  	97.693973 
4125.737424  	97.661344 
4127.666240  	97.690273 
4129.595056  	97.719099 
4131.523872  	97.719123 
4133.452688  	97.693430 
4135.381504  	97.640813 
4137.310320  	97.665261 
4139.239136  	97.707887 
4141.167952  	97.682772 
4143.096768  	97.618159 
4145.025584  	97.656819 
4146.954400  	97.661140 
4148.883216  	97.695583 
4150.812032  	97.717131 
4152.740848  	97.629571 
4154.669664  	97.606627 
4156.598480  	97.682401 
4158.527296  	97.692476 
4160.456112  	97.680957 
4162.384928  	97.726932 
4164.313744  	97.677930 
4166.242560  	97.619897 
4168.171376  	97.632269 
4170.100192  	97.682071 
4172.029008  	97.630977 
4173.957824  	97.591278 
4175.886640  	97.661406 
4177.815456  	97.699487 
4179.744272  	97.692945 
4181.673088  	97.682934 
4183.601904  	97.682394 
4185.530720  	97.686746 
4187.459536  	97.676462 
4189.388352  	97.612571 
4191.317168  	97.549495 
4193.245984  	97.615683 
4195.174800  	97.580814 
4197.103616  	97.544819 
4199.032432  	97.638536 
4200.961248  	97.678666 
4202.890064  	97.631712 
4204.818880  	97.603180 
4206.747696  	97.620678 
4208.676512  	97.621941 
4210.605328  	97.640378 
4212.534144  	97.617757 
4214.462960  	97.630964 
4216.391776  	97.691391 
4218.320592  	97.701999 
4220.249408  	97.646549 
4222.178224  	97.606582 
4224.107040  	97.602126 
4226.035856  	97.598184 
4227.964672  	97.637618 
4229.893488  	97.639080 
4231.822304  	97.589328 
4233.751120  	97.584717 
4235.679936  	97.611030 
4237.608752  	97.644524 
4239.537568  	97.561628 
4241.466384  	97.518022 
4243.395200  	97.607546 
4245.324016  	97.631692 
4247.252832  	97.648415 
4249.181648  	97.654194 
4251.110464  	97.582239 
4253.039280  	97.540300 
4254.968096  	97.556822 
4256.896912  	97.675688 
4258.825728  	97.685663 
4260.754544  	97.621607 
4262.683360  	97.642141 
4264.612176  	97.700525 
4266.540992  	97.726572 
4268.469808  	97.692010 
4270.398624  	97.663928 
4272.327440  	97.682198 
4274.256256  	97.688146 
4276.185072  	97.628786 
4278.113888  	97.634455 
4280.042704  	97.695261 
4281.971520  	97.704055 
4283.900336  	97.753006 
4285.829152  	97.733786 
4287.757968  	97.669013 
4289.686784  	97.636030 
4291.615600  	97.701986 
4293.544416  	97.760496 
4295.473232  	97.707249 
4297.402048  	97.678241 
4299.330864  	97.743580 
4301.259680  	97.719197 
4303.188496  	97.632675 
4305.117312  	97.648795 
4307.046128  	97.641769 
4308.974944  	97.658808 
4310.903760  	97.724266 
4312.832576  	97.750390 
4314.761392  	97.725076 
4316.690208  	97.649583 
4318.619024  	97.681242 
4320.547840  	97.779143 
4322.476656  	97.794125 
4324.405472  	97.705810 
4326.334288  	97.695577 
4328.263104  	97.700386 
4330.191920  	97.708030 
4332.120736  	97.671233 
4334.049552  	97.657990 
4335.978368  	97.595687 
4337.907184  	97.659906 
4339.836000  	97.675510 
4341.764816  	97.645590 
4343.693632  	97.673608 
4345.622448  	97.675265 
4347.551264  	97.678049 
4349.480080  	97.646449 
4351.408896  	97.620128 
4353.337712  	97.607710 
4355.266528  	97.630663 
4357.195344  	97.651383 
4359.124160  	97.657791 
4361.052976  	97.666176 
4362.981792  	97.688297 
4364.910608  	97.718912 
4366.839424  	97.681029 
4368.768240  	97.662703 
4370.697056  	97.675669 
4372.625872  	97.698013 
4374.554688  	97.676592 
4376.483504  	97.664709 
4378.412320  	97.636399 
4380.341136  	97.615901 
4382.269952  	97.614948 
4384.198768  	97.655021 
4386.127584  	97.686787 
4388.056400  	97.689060 
4389.985216  	97.735314 
4391.914032  	97.754900 
4393.842848  	97.744215 
4395.771664  	97.804000 
4397.700480  	97.782047 
4399.629296  	97.698620 
4401.558112  	97.700451 
4403.486928  	97.680525 
4405.415744  	97.653181 
4407.344560  	97.594588 
4409.273376  	97.668340 
4411.202192  	97.730195 
4413.131008  	97.693057 
4415.059824  	97.634238 
4416.988640  	97.645620 
4418.917456  	97.624435 
4420.846272  	97.604271 
4422.775088  	97.633519 
4424.703904  	97.651118 
4426.632720  	97.604856 
4428.561536  	97.606624 
4430.490352  	97.681554 
4432.419168  	97.703646 
4434.347984  	97.720850 
4436.276800  	97.722460 
4438.205616  	97.655902 
4440.134432  	97.678922 
4442.063248  	97.803415 
4443.992064  	97.837867 
4445.920880  	97.813783 
4447.849696  	97.764600 
4449.778512  	97.763839 
4451.707328  	97.704307 
4453.636144  	97.648442 
4455.564960  	97.694885 
4457.493776  	97.741051 
4459.422592  	97.725060 
4461.351408  	97.739177 
4463.280224  	97.746074 
4465.209040  	97.701649 
4467.137856  	97.684744 
4469.066672  	97.692721 
4470.995488  	97.641970 
4472.924304  	97.669589 
4474.853120  	97.723845 
4476.781936  	97.722407 
4478.710752  	97.735961 
4480.639568  	97.722318 
4482.568384  	97.678102 
4484.497200  	97.714120 
4486.426016  	97.705718 
4488.354832  	97.642884 
4490.283648  	97.745673 
4492.212464  	97.805480 
4494.141280  	97.740258 
4496.070096  	97.792432 
4497.998912  	97.736268 
4499.927728  	97.724957 